PE UV       SUBTECH     SPECTRUM    ASCII       PEDS        4.00        
   -1
SampleBG3.Sample.asc
11/01/16
03:50:26.00
11/01/16
03:50:26.00
PerkinElmer Method Developer

250.000000
1
Lambda 35
502S12111107
PerkinElmer UV WinLab 6.0.4.0738 / Lambda35 1.27

480
2
1
0
0
Both on
1
1
1
None
0
0
0
0
 
 
0
0
0
0
0
 
 
 
0
 
0
326
0
 
0
 
 
 
0
0
0
 
0
 
 
 
0
 
 
0
0
0
0
0
 
 
 
 
0
0


0
0
#HDR
-1
-1
#GR
nm
%T
1.0
0.0
900.000000
-1.000000
651
8
94.577352
-0.171077
#DATA
900.000000	89.921045
899.000000	89.905748
898.000000	89.931966
897.000000	90.151478
896.000000	90.219688
895.000000	90.265748
894.000000	90.033010
893.000000	90.282581
892.000000	90.538263
891.000000	90.398848
890.000000	90.405372
889.000000	90.800180
888.000000	90.633912
887.000000	90.738605
886.000000	90.763980
885.000000	90.715005
884.000000	91.085506
883.000000	91.021029
882.000000	90.657475
881.000000	91.258028
880.000000	91.039902
879.000000	91.165481
878.000000	91.087381
877.000000	91.177378
876.000000	91.490571
875.000000	91.351183
874.000000	91.509238
873.000000	91.255780
872.000000	91.472505
871.000000	91.562042
870.000000	91.417950
869.000000	91.587410
868.000000	91.714917
867.000000	91.602490
866.000000	91.788437
865.000000	91.718800
864.000000	91.734878
863.000000	91.838149
862.000000	91.858728
861.000000	91.696075
860.000000	91.813210
859.000000	91.934532
858.000000	91.819062
857.000000	92.132829
856.000000	91.986816
855.000000	92.024042
854.000000	91.932773
853.000000	92.195307
852.000000	92.257432
851.000000	92.152271
850.000000	92.086017
849.000000	92.211412
848.000000	92.205022
847.000000	92.356199
846.000000	92.545425
845.000000	92.517867
844.000000	92.304307
843.000000	92.581144
842.000000	92.485804
841.000000	92.515730
840.000000	92.533274
839.000000	92.652270
838.000000	92.674560
837.000000	92.575355
836.000000	92.525802
835.000000	92.779723
834.000000	92.839273
833.000000	92.721413
832.000000	92.772090
831.000000	92.853164
830.000000	92.928731
829.000000	92.925185
828.000000	92.888195
827.000000	92.716853
826.000000	93.033244
825.000000	93.059427
824.000000	92.864310
823.000000	92.985291
822.000000	93.046875
821.000000	93.079623
820.000000	92.979032
819.000000	93.001226
818.000000	93.048516
817.000000	93.130919
816.000000	93.087916
815.000000	93.202694
814.000000	93.054552
813.000000	93.139270
812.000000	93.153273
811.000000	93.193049
810.000000	93.307415
809.000000	93.378108
808.000000	93.110705
807.000000	93.236501
806.000000	93.324477
805.000000	93.290187
804.000000	93.346607
803.000000	93.265882
802.000000	93.460475
801.000000	93.328551
800.000000	93.356508
799.000000	93.385879
798.000000	93.448314
797.000000	93.462470
796.000000	93.317947
795.000000	93.404360
794.000000	93.385663
793.000000	93.278877
792.000000	93.422856
791.000000	93.452772
790.000000	93.462086
789.000000	93.267760
788.000000	93.491318
787.000000	93.466157
786.000000	93.514428
785.000000	93.457893
784.000000	93.515191
783.000000	93.468321
782.000000	93.494697
781.000000	93.523696
780.000000	93.495009
779.000000	93.390805
778.000000	93.507268
777.000000	93.440312
776.000000	93.359692
775.000000	93.297631
774.000000	93.363597
773.000000	93.303836
772.000000	93.377162
771.000000	93.270887
770.000000	93.304268
769.000000	93.197462
768.000000	93.235468
767.000000	93.141415
766.000000	93.189021
765.000000	92.980480
764.000000	92.993938
763.000000	92.913048
762.000000	92.754709
761.000000	92.857526
760.000000	92.672737
759.000000	92.655548
758.000000	92.547114
757.000000	92.375414
756.000000	92.320000
755.000000	92.158431
754.000000	91.886280
753.000000	91.760698
752.000000	91.672431
751.000000	91.349683
750.000000	91.047710
749.000000	90.812477
748.000000	90.481755
747.000000	90.284713
746.000000	89.935737
745.000000	89.604118
744.000000	89.125133
743.000000	88.710875
742.000000	88.170104
741.000000	87.584159
740.000000	87.006518
739.000000	86.394233
738.000000	85.554673
737.000000	84.785601
736.000000	83.932638
735.000000	82.985817
734.000000	82.039606
733.000000	80.911304
732.000000	79.731089
731.000000	78.397249
730.000000	77.004867
729.000000	75.593884
728.000000	73.924546
727.000000	72.185185
726.000000	70.342346
725.000000	68.367563
724.000000	66.236104
723.000000	63.856123
722.000000	61.509154
721.000000	58.900413
720.000000	56.289391
719.000000	53.449828
718.000000	50.659742
717.000000	47.724262
716.000000	44.691227
715.000000	41.583214
714.000000	38.539844
713.000000	35.486951
712.000000	32.279790
711.000000	29.215332
710.000000	26.136303
709.000000	23.157783
708.000000	20.332325
707.000000	17.667995
706.000000	15.187586
705.000000	12.813015
704.000000	10.684101
703.000000	8.828848
702.000000	7.080210
701.000000	5.648636
700.000000	4.378125
699.000000	3.365282
698.000000	2.566287
697.000000	1.805977
696.000000	1.326656
695.000000	0.921585
694.000000	0.634497
693.000000	0.431977
692.000000	0.288000
691.000000	0.229517
690.000000	0.128164
689.000000	0.112197
688.000000	0.096133
687.000000	0.106940
686.000000	0.032067
685.000000	0.048128
684.000000	0.021398
683.000000	0.122778
682.000000	0.085516
681.000000	0.053405
680.000000	-0.171077
679.000000	-0.058817
678.000000	0.117647
677.000000	0.080120
676.000000	0.010684
675.000000	0.010696
674.000000	-0.032094
673.000000	-0.053402
672.000000	-0.096180
671.000000	0.048072
670.000000	0.016041
669.000000	-0.138911
668.000000	0.005346
667.000000	0.026732
666.000000	0.058717
665.000000	0.026709
664.000000	0.021361
663.000000	-0.005337
662.000000	0.005342
661.000000	-0.085402
660.000000	0.000000
659.000000	0.074703
658.000000	-0.058682
657.000000	-0.010662
656.000000	-0.031973
655.000000	0.037294
654.000000	-0.106530
653.000000	0.047926
652.000000	-0.042544
651.000000	0.042565
650.000000	0.031925
649.000000	-0.010639
648.000000	-0.069182
647.000000	0.010637
646.000000	0.005322
645.000000	-0.047847
644.000000	-0.021260
643.000000	0.031888
642.000000	0.037196
641.000000	-0.116866
640.000000	-0.005308
639.000000	-0.010620
638.000000	-0.042436
637.000000	-0.047730
636.000000	-0.015931
635.000000	0.010615
634.000000	0.010613
633.000000	-0.037139
632.000000	-0.031847
631.000000	0.021220
630.000000	-0.010608
629.000000	-0.021219
628.000000	-0.015920
627.000000	0.015909
626.000000	-0.026534
625.000000	-0.090171
624.000000	0.026515
623.000000	-0.015926
622.000000	-0.005309
621.000000	0.063667
620.000000	-0.026532
619.000000	0.000000
618.000000	-0.159185
617.000000	0.058393
616.000000	0.058324
615.000000	0.037151
614.000000	0.005309
613.000000	0.000000
612.000000	-0.021226
611.000000	-0.015908
610.000000	-0.026506
609.000000	-0.005307
608.000000	0.031835
607.000000	-0.047750
606.000000	-0.031832
605.000000	0.015928
604.000000	0.042467
603.000000	0.000000
602.000000	-0.037169
601.000000	-0.021246
600.000000	-0.021242
599.000000	0.031895
598.000000	0.000000
597.000000	-0.069131
596.000000	0.005318
595.000000	-0.015986
594.000000	-0.058607
593.000000	-0.021336
592.000000	0.021360
591.000000	-0.016024
590.000000	-0.010691
589.000000	0.037437
588.000000	-0.058962
587.000000	-0.010734
586.000000	0.037576
585.000000	0.021494
584.000000	-0.037689
583.000000	0.048502
582.000000	-0.026982
581.000000	-0.021603
580.000000	0.032425
579.000000	-0.010815
578.000000	-0.070400
577.000000	-0.048736
576.000000	0.005420
575.000000	0.075864
574.000000	-0.048825
573.000000	-0.027149
572.000000	0.005429
571.000000	-0.054363
570.000000	-0.076190
569.000000	0.032692
568.000000	0.000000
567.000000	0.005449
566.000000	-0.070918
565.000000	-0.087298
564.000000	-0.076386
563.000000	-0.054621
562.000000	0.021867
561.000000	-0.027354
560.000000	0.005474
559.000000	-0.043804
558.000000	-0.016453
557.000000	-0.060396
556.000000	-0.087820
555.000000	0.005495
554.000000	-0.043975
553.000000	0.043990
552.000000	0.000000
551.000000	-0.038504
550.000000	0.060599
549.000000	0.022036
548.000000	-0.104804
547.000000	0.016555
546.000000	-0.016554
545.000000	0.060710
544.000000	0.055197
543.000000	-0.016577
542.000000	-0.055273
541.000000	-0.105059
540.000000	-0.066427
539.000000	0.038820
538.000000	0.016655
537.000000	0.011097
536.000000	-0.049983
535.000000	0.005556
534.000000	-0.050089
533.000000	0.011132
532.000000	-0.016721
531.000000	-0.039045
530.000000	-0.011165
529.000000	-0.061456
528.000000	0.011196
527.000000	-0.016798
526.000000	-0.056073
525.000000	0.022450
524.000000	-0.011230
523.000000	-0.005627
522.000000	-0.028153
521.000000	0.073330
520.000000	-0.016939
519.000000	-0.073438
518.000000	0.011321
517.000000	0.011326
516.000000	0.000000
515.000000	-0.085218
514.000000	0.034157
513.000000	-0.039881
512.000000	-0.005699
511.000000	-0.039977
510.000000	-0.091491
509.000000	-0.057274
508.000000	0.028711
507.000000	-0.005747
506.000000	-0.028760
505.000000	-0.017309
504.000000	-0.086710
503.000000	-0.034766
502.000000	-0.058028
501.000000	-0.023227
500.000000	-0.040747
499.000000	0.040831
498.000000	-0.070159
497.000000	-0.023412
496.000000	-0.046902
495.000000	-0.047020
494.000000	-0.082479
493.000000	-0.017693
492.000000	0.065073
491.000000	0.035621
490.000000	0.005941
489.000000	0.047693
488.000000	0.089579
487.000000	0.167725
486.000000	0.102108
485.000000	0.168787
484.000000	0.199263
483.000000	0.266554
482.000000	0.546780
481.000000	0.676376
480.000000	0.727962
479.000000	0.998958
478.000000	1.235706
477.000000	1.561728
476.000000	1.825834
475.000000	2.196847
474.000000	2.754409
473.000000	3.242161
472.000000	3.560905
471.000000	4.403624
470.000000	5.144735
469.000000	5.827890
468.000000	6.844082
467.000000	7.698686
466.000000	8.843494
465.000000	9.723295
464.000000	10.796335
463.000000	11.791721
462.000000	12.842365
461.000000	13.814675
460.000000	15.125057
459.000000	16.105090
458.000000	17.108736
457.000000	18.111486
456.000000	19.422311
455.000000	20.484581
454.000000	21.590529
453.000000	22.732174
452.000000	23.803739
451.000000	24.927222
450.000000	25.862303
449.000000	27.086743
448.000000	28.508802
447.000000	29.911175
446.000000	30.856197
445.000000	32.429991
444.000000	33.763966
443.000000	34.732557
442.000000	35.919175
441.000000	36.958525
440.000000	37.891515
439.000000	39.016699
438.000000	39.997116
437.000000	41.310500
436.000000	42.306852
435.000000	43.438781
434.000000	44.637340
433.000000	45.848483
432.000000	47.275988
431.000000	48.217228
430.000000	49.640940
429.000000	51.048154
428.000000	51.620282
427.000000	52.989754
426.000000	54.237288
425.000000	55.516814
424.000000	57.209701
423.000000	58.473845
422.000000	59.966804
421.000000	60.622624
420.000000	61.692810
419.000000	62.597008
418.000000	63.382318
417.000000	64.248202
416.000000	65.040980
415.000000	66.014351
414.000000	67.126097
413.000000	68.034949
412.000000	68.931797
411.000000	70.067461
410.000000	71.020682
409.000000	72.106326
408.000000	72.813399
407.000000	73.769656
406.000000	74.705078
405.000000	75.414199
404.000000	76.385293
403.000000	77.329516
402.000000	78.197978
401.000000	79.106439
400.000000	80.241900
399.000000	81.022868
398.000000	81.949394
397.000000	82.758312
396.000000	83.603312
395.000000	84.196703
394.000000	84.810472
393.000000	85.217391
392.000000	85.957957
391.000000	86.597938
390.000000	86.646137
389.000000	87.104646
388.000000	87.292296
387.000000	87.479814
386.000000	87.315353
385.000000	88.254122
384.000000	92.415150
383.000000	86.232637
382.000000	92.293960
381.000000	88.209476
380.000000	88.192102
379.000000	88.566553
378.000000	88.659058
377.000000	87.068105
376.000000	87.719120
375.000000	88.931841
374.000000	89.062661
373.000000	89.712148
372.000000	91.302499
371.000000	89.152794
370.000000	90.768901
369.000000	88.949508
368.000000	89.852259
367.000000	90.889181
366.000000	89.381015
365.000000	89.590255
364.000000	90.852368
363.000000	90.166143
362.000000	92.128047
361.000000	90.646572
360.000000	90.616407
359.000000	91.326413
358.000000	92.980803
357.000000	91.525424
356.000000	91.841575
355.000000	91.188646
354.000000	89.393221
353.000000	90.787249
352.000000	92.864234
351.000000	91.423026
350.000000	91.332518
349.000000	89.517122
348.000000	90.986480
347.000000	89.917023
346.000000	90.319716
345.000000	89.633375
344.000000	89.497365
343.000000	90.392509
342.000000	90.491200
341.000000	90.398218
340.000000	89.548134
339.000000	92.646277
338.000000	91.703057
337.000000	92.171582
336.000000	88.324468
335.000000	93.841015
334.000000	89.869103
333.000000	93.389456
332.000000	87.942100
331.000000	88.332876
330.000000	89.776899
329.000000	91.136586
328.000000	94.577352
327.000000	92.555761
326.000000	89.646672
325.000000	90.209309
324.000000	90.841619
323.000000	89.774310
322.000000	90.497738
321.000000	88.785047
320.000000	88.843268
319.000000	88.982687
318.000000	89.421823
317.000000	88.683098
316.000000	88.488680
315.000000	89.870977
314.000000	89.083035
313.000000	88.684647
312.000000	88.222796
311.000000	86.614173
310.000000	87.471211
309.000000	86.702703
308.000000	85.709833
307.000000	86.026751
306.000000	83.873006
305.000000	84.481102
304.000000	83.586185
303.000000	83.017636
302.000000	82.422646
301.000000	81.842457
300.000000	80.872483
299.000000	80.152931
298.000000	79.634104
297.000000	78.115714
296.000000	76.575463
295.000000	75.440784
294.000000	73.926271
293.000000	71.850501
292.000000	71.355123
291.000000	70.833333
290.000000	69.548023
289.000000	68.398849
288.000000	66.170578
287.000000	65.581212
286.000000	63.291642
285.000000	62.479904
284.000000	60.908535
283.000000	58.583384
282.000000	57.483416
281.000000	56.279168
280.000000	54.298546
279.000000	51.495589
278.000000	48.686211
277.000000	45.857080
276.000000	44.225290
275.000000	41.755319
274.000000	40.322220
273.000000	38.263016
272.000000	36.524501
271.000000	34.277232
270.000000	31.921227
269.000000	30.075705
268.000000	27.793231
267.000000	25.851286
266.000000	23.116398
265.000000	20.501994
264.000000	18.347538
263.000000	15.816808
262.000000	13.478573
261.000000	11.464355
260.000000	9.866017
259.000000	7.834442
258.000000	6.047088
257.000000	4.683196
256.000000	3.575925
255.000000	1.911315
254.000000	2.404343
253.000000	1.613743
252.000000	1.187335
251.000000	0.855158
250.000000	0.410060
